\DATE= 'Mon Feb 18 15:28:53 2008'
\APERNAME= 'SL1'
\BUNIT= 'e/s/pix'
\CAL_SET= 'irs_2007_02_12-pb-pfc-trim-omeg-lhbiasfork.cal'
\SOFTWARE= 'CUBISM'
\SOFT_VER= 'v1.50pre3 (March-2007)'
\FILENAME= 'sl1.tbl'
\ COMMENT This file contains a spectral extraction created from
\ COMMENT an IRS spectral mapping dataset.
\ Extraction Rectangle:
\ # Box: 02:27:17.246,+33:34:51.36 ; 02:27:16.024,+33:34:44.71
\ #      02:27:16.438,+33:34:32.84 ; 02:27:17.660,+33:34:39.49
|   WAVELENGTH    |      FLUX       | FLUX_UNCERTAINTY |
|      real       |      real       |       real       |
|       um        |     e/s/pix     |     e/s/pix      |
         7.533706          7.640248          0.8628622
         7.595799          8.695580          0.7854813
         7.657894          11.03636          0.8002969
         7.719988          7.546131          0.7806383
         7.782082          8.433073          0.7170249
         7.844176          7.964742          0.6316317
         7.906271          7.871818          0.7355142
         7.968365          6.645626          0.6662492
         8.030458          6.882852          0.8521715
         8.092554          6.203224          0.5875459
         8.154648          4.685606          0.6091691
         8.216742          4.140145          0.5669962
         8.278836          4.856048          0.5510889
         8.340930          5.652900          0.4293237
         8.403025          3.761530          0.4714775
         8.465118          5.717328          0.4732896
         8.527213          5.611298          0.3840103
         8.589307          5.435310          0.4337181
         8.651402          5.825032          0.3926595
         8.713495          4.127477          0.4048428
         8.775590          4.207042          0.3325972
         8.837685          3.920407          0.3718614
         8.899778          2.475273          0.3605441
         8.961872          2.784868          0.4073643
         9.023967          2.663511          0.4064780
         9.086061          2.412215          0.4418094
         9.148155          1.955304          0.3964973
         9.210249          1.433427          0.4436316
         9.272344          2.026508          0.4802650
         9.334438          3.306824          0.5396993
         9.396532          1.134045          0.4930383
         9.458626          1.428012          0.4768371
         9.520720          2.238028          0.4593428
         9.582815          3.148361          0.4183292
         9.644909          1.398596          0.4473656
         9.707003          2.525732          0.3645588
         9.769097          1.281929          0.3514503
         9.831192          1.703127          0.3447217
         9.893286          2.267052          0.3378282
         9.955380          1.403501          0.3308599
         10.01747          3.526093          0.3273527
         10.07957          2.304026          0.3393896
         10.14166          1.482069          0.3231653
         10.20376          1.770945          0.3074917
         10.26585          1.913630          0.2943440
         10.32795          1.912819          0.3009827
         10.39004          1.656521          0.2960027
         10.45213          1.677981          0.3623961
         10.51423          2.775352          0.3770694
         10.57632          1.989107          0.3480251
         10.63842          3.270326          0.3466251
         10.70051          3.326470          0.4129327
         10.76260          3.142389          0.3934800
         10.82470          3.051033          0.4082042
         10.88679          2.972171          0.4818939
         10.94889          2.032049          0.4974214
         11.01098          4.447234          0.4558532
         11.07308          4.357261          0.4273340
         11.13517          4.703097          0.4161094
         11.19726          8.859007          0.3651675
         11.25936          11.61600          0.3936108
         11.32145          10.53853          0.4583886
         11.38355          8.236793          0.3983488
         11.44564          5.837653          0.3988074
         11.50774          4.891818          0.3123297
         11.56983          3.477021          0.3518607
         11.63192          3.751939          0.3770879
         11.69402          3.148369          0.3953462
         11.75611          3.166028          0.3514943
         11.81821          3.820327          0.3626001
         11.88030          3.610277          0.3510998
         11.94240          3.601289          0.3593580
         12.00449          3.058392          0.3796740
         12.06658          3.171090          0.4171237
         12.12868          2.717482          0.4527051
         12.19077          3.862169          0.3950407
         12.25287          3.230613          0.4549937
         12.31496          3.544411          0.4345286
         12.37705          4.181146          0.5431626
         12.43915          4.249420          0.4827624
         12.50124          4.854990          0.4075136
         12.56334          4.362042          0.4085310
         12.62543          4.341888          0.3997364
         12.68753          4.570478          0.3824892
         12.74962          4.965018          0.3592941
         12.81171          7.528867          0.3485951
         12.87381          5.828186          0.3562509
         12.93590          3.601189          0.3430285
         12.99800          2.656580          0.3290022
         13.06009          2.103962          0.3413565
         13.12218          1.847384          0.3752024
         13.18428          1.986629          0.4464335
         13.24637          1.425079          0.3624972
         13.30847          1.300539          0.3441723
         13.37056          1.159577          0.3839979
         13.43266          1.984385          0.3788092
         13.49475          2.089961          0.3943818
         13.55684          1.335304          0.4142273
         13.61894          1.958661          0.4770522
         13.68103          1.929255          0.4648229
         13.74313          2.737611          0.5303547
         13.80522          2.733747          0.5676000
         13.86732         0.8068718          0.5162392
         13.92941          1.651396          0.6223319
         13.99150          2.072780          0.4933313
         14.05360          2.878393          0.4644288
         14.11569         0.8831354          0.5472850
         14.17779          1.570989          0.5300135
         14.23988          3.070765          0.4752592
         14.30198          1.055143          0.5197225
         14.36407         0.8505794          0.4703802
         14.42616          1.492954          0.4406846
         14.48826         0.9626017          0.4682614
         14.55035          1.811887          0.3949492
         14.61245          2.070066          0.4850547
         14.67454          1.841171          0.4182481
         14.73664          1.174881          0.3595613
