\DATE= 'Mon Feb 18 15:29:25 2008'
\APERNAME= 'SL2'
\BUNIT= 'e/s/pix'
\CAL_SET= 'irs_2007_02_12-pb-pfc-trim-omeg-lhbiasfork.cal'
\SOFTWARE= 'CUBISM'
\SOFT_VER= 'v1.50pre3 (March-2007)'
\FILENAME= 'sl2.tbl'
\ COMMENT This file contains a spectral extraction created from
\ COMMENT an IRS spectral mapping dataset.
\ Extraction Rectangle:
\ # Box: 02:27:17.385,+33:34:56.67 ; 02:27:16.164,+33:34:50.02
\ #      02:27:17.051,+33:34:24.58 ; 02:27:18.272,+33:34:31.24
|   WAVELENGTH    |      FLUX       | FLUX_UNCERTAINTY |
|      real       |      real       |       real       |
|       um        |     e/s/pix     |     e/s/pix      |
         5.242817        -0.6795866          0.7341502
         5.273802        -0.9170142          0.7944046
         5.304788        -0.5200085          0.6370532
         5.335773        -0.2533831          0.5840935
         5.366758        -0.2372744          0.5615216
         5.397744         0.6250238          0.6058329
         5.428729        -0.6956362          0.4946178
         5.459714        -0.2403686          0.4695316
         5.490700         0.7238236          0.4872152
         5.521685         0.6641007          0.3973832
         5.552670          1.502609          0.3936854
         5.583656          1.553998          0.4015598
         5.614641          1.722266          0.3818474
         5.645627        -0.3423715          0.4012347
         5.676612         0.4649650          0.3875728
         5.707598          1.172451          0.3944314
         5.738583         0.5027756          0.4362586
         5.769568         0.1924219          0.4218718
         5.800553         0.6662626          0.4740896
         5.831539         0.5912320          0.4774813
         5.862525          1.143846          0.4779832
         5.893510          1.763339          0.5199217
         5.924495         0.9244977          0.5159754
         5.955481         0.3004251          0.5819098
         5.986466          2.006696          0.5700119
         6.017451          1.792003          0.5721972
         6.048437          1.839902          0.5189673
         6.079422          3.407378          0.5724393
         6.110407          2.402072          0.4492673
         6.141393          2.340423          0.5327176
         6.172378          4.043275          0.4184513
         6.203363          5.230729          0.4001648
         6.234349          5.459936          0.3682907
         6.265334          4.019769          0.3964261
         6.296319          3.215432          0.3741148
         6.327305          2.253460          0.4206085
         6.358290          2.889993          0.4005620
         6.389276          2.489074          0.3813357
         6.420261          1.379399          0.3956368
         6.451246          2.270252          0.4513960
         6.482232          2.093213          0.4128259
         6.513217          1.997699          0.4519208
         6.544202          2.365459          0.5267788
         6.575188          1.895970          0.5406113
         6.606173          2.461267          0.5987171
         6.637158          2.120929          0.5658394
         6.668144          2.829945          0.5710236
         6.699129          3.550661          0.5307288
         6.730114          1.835548          0.5632553
         6.761100          1.728074          0.5444306
         6.792085          2.862853          0.5307349
         6.823071          2.211850          0.5665007
         6.854056          1.223237          0.5875026
         6.885041          2.554509          0.5556791
         6.916027          1.225564          0.5320467
         6.947012          2.785650          0.7191858
         6.977998          3.866848          0.5324364
         7.008983          1.307310          0.5359204
         7.039968          2.102571          0.5704564
         7.070954          1.474303          0.5626494
         7.101939          2.137104          0.5285292
         7.132924          1.500296          0.5383685
         7.163910          3.417923          0.5410163
         7.194895          2.180634          0.5926619
         7.225881          2.586433          0.6322143
         7.256866          2.193164          0.7041145
         7.287851          3.988776          0.7341728
         7.318837          5.003143          0.8031989
         7.349822          4.856272          0.8685930
         7.380807          2.675557          0.9072062
         7.411793          1.293857          0.8191271
         7.442778          2.291194          0.9249510
         7.473763          3.890453          0.8748773
         7.504749          5.548286          0.8121258
         7.535734          6.010550          0.8597154
         7.566720          7.839957          0.9274243
         7.597705          9.262936           1.007885
