\DATE= 'Sun Feb 10 21:36:56 2008'
\APERNAME= 'SL2'
\BUNIT= 'e/s/pix'
\CAL_SET= 'irs_2007_02_12-pb-pfc-trim-omeg-lhbiasfork.cal'
\SOFTWARE= 'CUBISM'
\SOFT_VER= 'v1.50pre3 (March-2007)'
\FILENAME= 'sl2.tbl'
\ COMMENT This file contains a spectral extraction created from
\ COMMENT an IRS spectral mapping dataset.
\ Extraction Rectangle:
\ # Box: 09:47:16.769,+67:55:05.44 ; 09:47:18.149,+67:55:00.43
\ #      09:47:18.859,+67:55:06.65 ; 09:47:17.479,+67:55:11.66
|   WAVELENGTH    |      FLUX       | FLUX_UNCERTAINTY |
|      real       |      real       |       real       |
|       um        |     e/s/pix     |     e/s/pix      |
         5.242817          1.401678           1.447857
         5.273802          1.358404           1.402108
         5.304788         -1.640043           1.343583
         5.335773         -1.713204           1.314503
         5.366758         0.6946181           1.191647
         5.397744          1.249123           1.006870
         5.428729         0.2857448          0.9107451
         5.459714         -1.280195           1.087246
         5.490700         -1.006833           1.161372
         5.521685         -1.354239           1.001788
         5.552670        -0.9380320          0.9028026
         5.583656        -0.4207685          0.8293608
         5.614641        -0.5409122          0.9417551
         5.645627          2.035124          0.9072521
         5.676612          1.676513          0.9092692
         5.707598          1.275139          0.9091281
         5.738583         0.8674444           1.060174
         5.769568         0.4939036          0.9163469
         5.800553          1.046199           1.093708
         5.831539          1.878372           1.196125
         5.862525          1.408768           1.219881
         5.893510          1.107767           1.209968
         5.924495         0.3004769           1.095989
         5.955481         0.6252863           1.180778
         5.986466        0.01038487           1.242810
         6.017451         0.8417972           1.107539
         6.048437          2.741886          0.9796451
         6.079422         0.9969606          0.8989393
         6.110407          1.090780          0.9376239
         6.141393          2.199210          0.8031756
         6.172378          5.060796          0.8320750
         6.203363          6.554883          0.8279270
         6.234349          6.422096          0.8051469
         6.265334          4.257520          0.8138375
         6.296319          2.346545          0.7462567
         6.327305          2.105632          0.8464739
         6.358290          1.657888          0.9448552
         6.389276          3.626643          0.9111000
         6.420261          2.571990          0.8579504
         6.451246          2.565004          0.8496702
         6.482232          3.073314          0.8312081
         6.513217          3.588116          0.8283163
         6.544202          1.785163           1.205175
         6.575188          1.597719           1.118120
         6.606173          3.160133           1.101767
         6.637158          2.046283           1.311063
         6.668144          3.165672           1.371500
         6.699129          3.725398           1.015219
         6.730114          2.534534           1.143596
         6.761100          2.091575           1.249988
         6.792085          1.069168           1.026010
         6.823071         0.7036271           1.034711
         6.854056          1.948738          0.9869486
         6.885041          2.353599           1.126304
         6.916027          2.480518          0.9521409
         6.947012          2.422440          0.9581032
         6.977998          4.303602           1.024012
         7.008983          4.020963           1.143389
         7.039968          3.639808           1.293558
         7.070954          3.227254           1.162151
         7.101939          2.801264           1.214596
         7.132924          2.763465           1.224019
         7.163910          3.714065           1.256241
         7.194895          2.199427           1.225765
         7.225881          2.563364           1.404237
         7.256866          2.028549           1.559916
         7.287851          4.208373           1.686436
         7.318837          5.718089           1.674116
         7.349822          7.338016           1.759485
         7.380807          4.908990           1.882379
         7.411793          4.911789           2.007719
         7.442778          5.293498           1.596914
         7.473763          6.392606           1.470586
         7.504749          5.502635           1.674298
         7.535734          7.962412           1.839262
         7.566720          7.706027           1.683857
         7.597705          6.425879           2.290741
