\DATE= 'Mon Oct  1 22:10:11 2007'
\APERNAME= 'LL1'
\BUNIT= 'e/s/pix'
\CAL_SET= 'irs_2007_02_12-pb-pfc-trim-omeg-lhbiasfork.cal'
\SOFTWARE= 'CUBISM'
\SOFT_VER= 'v1.50pre3 (March-2007)'
\FILENAME= 'll1.tbl'
\ COMMENT This file contains a spectral extraction created from
\ COMMENT an IRS spectral mapping dataset.
\ Extraction Rectangle:
\ # Box: 12:50:44.839,+41:07:47.90 ; 12:50:45.667,+41:08:05.94
\ #      12:50:43.671,+41:08:17.63 ; 12:50:42.843,+41:07:59.60
|   WAVELENGTH    |      FLUX       | FLUX_UNCERTAINTY |
|      real       |      real       |       real       |
|       um        |     e/s/pix     |     e/s/pix      |
         20.52005         0.2108290          0.1112201
         20.69658         0.2161162         0.08356173
         20.87322         0.4466724         0.07093327
         21.04995         0.3438987         0.06644146
         21.22679         0.3600307         0.07772903
         21.40373         0.4745471         0.07481383
         21.58078         0.3356680         0.06338076
         21.75792         0.2488502         0.05954754
         21.93517         0.3894064         0.06790639
         22.11252         0.4331736         0.05455075
         22.28998         0.2846527         0.05834366
         22.46754         0.2929853         0.05406783
         22.64520         0.4435151         0.05746356
         22.82297         0.4843916         0.05100141
         23.00084         0.3728447         0.04607793
         23.17881         0.3622455         0.05141140
         23.35689         0.4519358         0.05770480
         23.53507         0.4256469         0.05419146
         23.71336         0.4498991         0.04806758
         23.89176         0.4752987         0.04428453
         24.07026         0.4088208         0.04863580
         24.24886         0.4478528         0.04878148
         24.42757         0.4014483         0.04334697
         24.60638         0.4197091         0.04327157
         24.78531         0.5086945         0.04254996
         24.96433         0.4666093         0.04790687
         25.14346         0.4708899         0.04859177
         25.32270         0.5394473         0.04807781
         25.50205         0.5060768         0.04607524
         25.68150         0.6014104         0.05109067
         25.86106         0.6866007         0.05295495
         26.04073         0.6189126         0.05633939
         26.22051         0.5737993         0.05058385
         26.40039         0.7139866         0.05735330
         26.58038         0.6634161         0.05110624
         26.76048         0.5223403         0.05245348
         26.94068         0.4787088         0.05312970
         27.12100         0.4037533         0.05464143
         27.30142         0.4009022         0.05451154
         27.48195         0.5882214         0.04878689
         27.66259         0.5185860         0.04591650
         27.84334         0.4392895         0.05029682
         28.02420         0.5852806         0.05534873
         28.20517         0.6885135         0.06326161
         28.38625         0.7062942         0.05429288
         28.56744         0.5086383         0.05051865
         28.74874         0.5695341         0.05040929
         28.93015         0.5395814         0.05002512
         29.11167         0.5366043         0.05951289
         29.29330         0.4974991         0.06579120
         29.47504         0.5665661         0.06235733
         29.65689         0.5755833          0.1260065
         29.83886         0.6259545         0.06649208
         30.02094         0.5463520         0.05985438
         30.20312         0.7108707         0.06409139
         30.38542         0.6625852         0.08856924
         30.56783         0.5768529         0.07082670
         30.75036         0.7297654         0.07029177
         30.93299         0.6807455         0.07311240
         31.11574         0.5655810         0.07462529
         31.29861         0.7061936         0.07692064
         31.48158         0.5632136         0.07273756
         31.66467         0.6604973          0.1040524
         31.84788         0.6679362         0.09343298
         32.03119         0.7386380         0.09228417
         32.21462         0.9537393          0.1100309
         32.39817         0.8959511          0.1051290
         32.58183         0.7661907          0.1082578
         32.76560         0.8567065          0.1267724
         32.94949         0.7300869          0.1259458
         33.13350         0.7889962          0.1175049
         33.31762         0.8619758          0.1275113
         33.50185          1.248079          0.1471754
         33.68620         0.9317398          0.1565572
         33.87067         0.8443422          0.1857676
         34.05526         0.9177564          0.1807259
         34.23996         0.6392381          0.1819837
         34.42477         0.7975670          0.1888514
         34.60971         0.7549680          0.6469368
         34.79476          1.226894          0.2590163
         34.97993          1.193988          0.2452959
         35.16521          1.045984          0.2597921
         35.35062         0.4539968          0.2485826
         35.53614         0.7257579          0.2707129
         35.72178         0.4330124          0.2914370
         35.90754         0.9742674          0.3508206
         36.09341         0.7626092          0.3806998
         36.27941        -0.1377529          0.4085711
         36.46552         0.1773613          0.4086773
         36.65176        0.04774169          0.4794848
         36.83811          1.195326          0.4375120
         37.02459         0.8441037          0.4564746
         37.21118         0.7931453          0.4950922
         37.39790          1.383195          0.5210660
         37.58473         0.4387795          0.6885936
         37.77169        -0.1068233          0.8200366
         37.95876         0.3723035          0.9351879
         38.14596          2.073472          0.9752051
         38.33328          1.383900          0.8242196
