\DATE= 'Sun Mar  9 04:09:48 2008'
\APERNAME= 'SL1'
\BUNIT= 'e/s/pix'
\CAL_SET= 'irs_2007_02_12-pb-pfc-trim-omeg-lhbiasfork.cal'
\SOFTWARE= 'CUBISM'
\SOFT_VER= 'v1.50pre3 (March-2007)'
\FILENAME= 'sl1.tbl'
\ COMMENT This file contains a spectral extraction created from
\ COMMENT an IRS spectral mapping dataset.
\ Extraction Rectangle:
\ # Box: 12:50:25.949,+25:29:45.26 ; 12:50:26.416,+25:29:41.41
\ #      12:50:26.772,+25:29:49.31 ; 12:50:26.305,+25:29:53.16
|   WAVELENGTH    |      FLUX       | FLUX_UNCERTAINTY |
|      real       |      real       |       real       |
|       um        |     e/s/pix     |     e/s/pix      |
         7.533706         0.7718980           1.440838
         7.595799          2.210782           1.306610
         7.657894          1.163064           1.418733
         7.719988        0.08746328           1.040882
         7.782082         0.4615970           1.050404
         7.844176          2.175417          0.9680576
         7.906271          1.557350          0.8161206
         7.968365        -0.4610636          0.8398000
         8.030458         0.9687781          0.7137054
         8.092554          1.427922          0.7601293
         8.154648          1.249942          0.5415083
         8.216742         0.5883640          0.6917610
         8.278836         0.4317099          0.6161124
         8.340930        -0.1224620          0.5525741
         8.403025         0.6362514          0.5828397
         8.465118         0.9027942          0.5610141
         8.527213         0.4823474          0.5373693
         8.589307         0.5207151          0.6184802
         8.651402          1.405417          0.5625335
         8.713495        0.07148037          0.4910321
         8.775590          1.050689          0.4981616
         8.837685         0.9821047          0.4910004
         8.899778         0.4625098          0.5196193
         8.961872         0.3382057          0.5151088
         9.023967        -0.2673401          0.5372837
         9.086061         0.3475479          0.6393148
         9.148155         0.5978594          0.5568413
         9.210249         0.5641264          0.6075873
         9.272344         0.5049187          0.6190630
         9.334438         0.8569853          0.5307817
         9.396532         0.5054544          0.7674898
         9.458626         0.4603623          0.5716720
         9.520720          1.188117          0.6067361
         9.582815          1.157000          0.4850692
         9.644909          2.421496          0.4394702
         9.707003          1.889281          0.3780971
         9.769097          1.729024          0.4225021
         9.831192          1.424657          0.3751209
         9.893286          1.399229          0.4185649
         9.955380          1.290323          0.3708557
         10.01747         0.6058367          0.3934160
         10.07957          1.643252          0.4573402
         10.14166          1.049824          0.3563187
         10.20376          1.645052          0.4170392
         10.26585         0.5224739          0.4407189
         10.32795         0.8272914          0.5495425
         10.39004         0.5295436          0.4870620
         10.45213         0.3334988          0.5968305
         10.51423          1.415842          0.6017925
         10.57632          1.116116          0.6028261
         10.63842          1.061070          0.5398148
         10.70051          1.596435          0.5719894
         10.76260         0.4852192          0.4825151
         10.82470         0.8590298          0.4982425
         10.88679          1.054538          0.5043330
         10.94889         0.6774772          0.5378386
         11.01098          1.133472          0.5251147
         11.07308          1.273777          0.5972364
         11.13517         0.6834215          0.5692621
         11.19726          1.676952          0.4055933
         11.25936          2.077515          0.4208729
         11.32145          2.379002          0.3731205
         11.38355          2.601129          0.4819402
         11.44564          2.255677          0.4395288
         11.50774          2.245649          0.4202264
         11.56983         0.7387902          0.4794748
         11.63192          1.247387          0.4294744
         11.69402          2.027525          0.4904150
         11.75611          1.314750          0.4697746
         11.81821          1.241140          0.5226456
         11.88030          1.675177          0.5384263
         11.94240          1.579981          0.5218515
         12.00449          1.324336          0.5018331
         12.06658         0.9401986          0.5511583
         12.12868          2.090755          0.6869854
         12.19077          1.882128          0.6490562
         12.25287          2.177819          0.6101589
         12.31496          3.348038          0.5113749
         12.37705          2.170303          0.6194012
         12.43915          1.390959          0.4845178
         12.50124          1.059407          0.4843050
         12.56334          1.154456          0.5017180
         12.62543          1.966257          0.4656007
         12.68753          1.468562          0.4663001
         12.74962          1.161287          0.4670610
         12.81171          2.262664          0.4368007
         12.87381          2.530580          0.5028287
         12.93590          1.656254          0.5058407
         12.99800          1.600488          0.5800549
         13.06009          1.495587          0.5307125
         13.12218         0.6032790          0.5581342
         13.18428          1.162920          0.5658828
         13.24637         0.4484760          0.6016397
         13.30847          1.296405          0.5914164
         13.37056          1.568587           1.071784
         13.43266          1.052133          0.7154811
         13.49475          1.536183          0.8791560
         13.55684          1.503005          0.6939985
         13.61894          1.902649          0.7569307
         13.68103         0.7352746          0.7232860
         13.74313          1.122053          0.6651909
         13.80522          2.089806          0.6733254
         13.86732          2.014386          0.6543189
         13.92941          1.268978          0.6875800
         13.99150          1.211190          0.7220103
         14.05360         0.8747095          0.7923605
         14.11569          1.121914          0.7614329
         14.17779         0.6858881          0.6885432
         14.23988          2.259710          0.7231772
         14.30198          1.811321          0.6941711
         14.36407        -0.3155978          0.5905147
         14.42616          1.737019          0.6434094
         14.48826         0.2735836          0.5609397
         14.55035         0.5379893          0.7183510
         14.61245          1.113760          0.6492003
         14.67454          1.033293          0.6282768
         14.73664          1.850130          0.4943339
