\DATE= 'Tue Sep 25 20:51:33 2007'
\APERNAME= 'LL2'
\BUNIT= 'e/s/pix'
\CAL_SET= 'irs_2007_02_12-pb-pfc-trim-omeg-lhbiasfork.cal'
\SOFTWARE= 'CUBISM'
\SOFT_VER= 'v1.50pre3 (March-2007)'
\FILENAME= 'll2.tbl'
\ COMMENT This file contains a spectral extraction created from
\ COMMENT an IRS spectral mapping dataset.
\ Extraction Rectangle:
\ # Box: 09:47:21.667,+67:54:11.26 ; 09:47:25.074,+67:54:34.91
\ #      09:47:06.186,+67:56:01.36 ; 09:47:02.781,+67:55:37.68
|   WAVELENGTH    |      FLUX       | FLUX_UNCERTAINTY |
|      real       |      real       |       real       |
|       um        |     e/s/pix     |     e/s/pix      |
         14.26661          2.588304         0.03375324
         14.35830          2.429949         0.02581752
         14.45000          2.301436         0.02574022
         14.54169          2.205247         0.02522216
         14.63338          2.242191         0.02725494
         14.72508          2.189731         0.02702501
         14.81677          2.136649         0.02623964
         14.90846          2.103633         0.02530547
         15.00015          2.113976         0.02257774
         15.09185          2.167366         0.02258906
         15.18354          2.169428         0.03413992
         15.27523          2.271163         0.03742752
         15.36693          2.248507         0.02192292
         15.45862          2.662582         0.08196831
         15.55031          3.685818         0.02718055
         15.64200          3.365558         0.02861056
         15.73370          2.623365         0.02026062
         15.82539          2.690241         0.02286229
         15.91708          2.858439         0.02408517
         16.00878          2.807607         0.02623718
         16.10047          2.741902         0.02630316
         16.19216          2.921051         0.02842428
         16.28386          3.511150         0.02897515
         16.37555          4.520392         0.04036922
         16.46724          5.013065         0.02898552
         16.55893          4.414174         0.02738984
         16.65063          4.089839         0.02640628
         16.74232          4.118149         0.02725986
         16.83401          4.146173         0.02859093
         16.92570          4.505929         0.02809232
         17.01740          5.387507         0.02583634
         17.10909          5.223526         0.02543948
         17.20078          4.628597         0.02574175
         17.29248          4.673995         0.02703713
         17.38417          4.724719         0.02746674
         17.47586          4.264149         0.02698839
         17.56756          3.775270         0.02603158
         17.65925          3.697529         0.02605570
         17.75094          3.788301         0.02752637
         17.84263          3.603044         0.02839190
         17.93433          3.547753         0.02964596
         18.02602          3.243137         0.02880088
         18.11771          3.142063         0.02770087
         18.20941          3.170826         0.02847669
         18.30110          3.168738         0.03190306
         18.39279          3.212707         0.03221379
         18.48449          3.219598         0.03213922
         18.57618          3.733343         0.04305676
         18.66787          6.751835         0.03554241
         18.75956          8.509512         0.05247152
         18.85126          4.436027         0.04011989
         18.94295          3.676781         0.03742700
         19.03464          3.559085         0.04056558
         19.12634          3.558886         0.04167106
         19.21803          3.385471         0.04152068
         19.30972          3.430305         0.04542968
         19.40141          3.353336         0.04837304
         19.49311          3.357176         0.04578713
         19.58480          3.484133         0.07934991
         19.67649          3.494238         0.06928664
         19.76819          3.474637         0.04927039
         19.85988          3.454460         0.06968202
         19.95157          3.550899         0.04786234
         20.04326          3.458463         0.04780114
         20.13496          3.430342         0.04476033
         20.22665          3.495213         0.04872476
         20.31834          3.596042         0.04637855
         20.41004          3.635684         0.05097656
         20.50173          3.588420         0.05142756
         20.59342          3.559197         0.06308988
         20.68512          3.530347         0.06278954
         20.77681          3.659029         0.07451477
         20.86850          3.435034         0.07111140
         20.96019          3.353089         0.06954069
         21.05189          3.287025         0.06859893
