\DATE= 'Thu Oct 18 01:19:14 2007'
\APERNAME= 'SL1'
\BUNIT= 'e/s/pix'
\CAL_SET= 'irs_2007_02_12-pb-pfc-trim-omeg-lhbiasfork.cal'
\SOFTWARE= 'CUBISM'
\SOFT_VER= 'v1.50pre3 (March-2007)'
\FILENAME= 'sl1.tbl'
\ COMMENT This file contains a spectral extraction created from
\ COMMENT an IRS spectral mapping dataset.
\ Extraction Rectangle:
\ # Box: 01:36:41.017,+15:47:16.09 ; 01:36:40.451,+15:47:11.75
\ #      01:36:40.992,+15:46:57.05 ; 01:36:41.558,+15:47:01.39
|   WAVELENGTH    |      FLUX       | FLUX_UNCERTAINTY |
|      real       |      real       |       real       |
|       um        |     e/s/pix     |     e/s/pix      |
         7.533706          7.750888          0.9878096
         7.595799          11.01555          0.8588578
         7.657894          11.05735          0.9399421
         7.719988          10.60114          0.7260290
         7.782082          9.029279          0.6568204
         7.844176          10.17121          0.5980541
         7.906271          9.846055          0.5440673
         7.968365          9.280978          0.4947512
         8.030458          8.233096          0.5201722
         8.092554          7.076367          0.5704851
         8.154648          7.279001          0.5147833
         8.216742          7.244586          0.4053058
         8.278836          5.686458          0.4001046
         8.340930          5.693047          0.3600915
         8.403025          6.573518          0.3458545
         8.465118          7.246294          0.4224835
         8.527213          6.482465          0.4012479
         8.589307          7.671266          0.4263368
         8.651402          7.227749          0.4118592
         8.713495          5.756874          0.4204395
         8.775590          5.167479          0.4327199
         8.837685          3.896275          0.4521099
         8.899778          3.569612          0.5419080
         8.961872          3.525024          0.5453432
         9.023967          3.369666          0.4439355
         9.086061          3.208180          0.4450866
         9.148155          3.085020          0.4063517
         9.210249          2.894482          0.3888884
         9.272344          2.893721          0.4405974
         9.334438          2.459084          0.4176099
         9.396532          2.225949          0.3595205
         9.458626          2.710353          0.4232606
         9.520720          2.543478          0.3817090
         9.582815          2.579782          0.3261442
         9.644909          2.495799          0.2884980
         9.707003          3.014132          0.3259244
         9.769097          2.575976          0.3519530
         9.831192          2.779823          0.3343196
         9.893286          1.927378          0.3141342
         9.955380          2.632161          0.2827201
         10.01747          2.795621          0.3571982
         10.07957          2.154820          0.3246610
         10.14166          2.364763          0.3392567
         10.20376          2.850772          0.2879342
         10.26585          2.200240          0.3626486
         10.32795          2.343424          0.3607480
         10.39004          2.383828          0.4286153
         10.45213          2.659111          0.4286250
         10.51423          2.792796          0.4515208
         10.57632          3.464267          0.3892041
         10.63842          2.731170          0.3793293
         10.70051          3.656771          0.3744879
         10.76260          3.565601          0.3179970
         10.82470          3.156332          0.3266819
         10.88679          3.434040          0.3575495
         10.94889          4.141508          0.3277338
         11.01098          4.666084          0.3138131
         11.07308          4.867851          0.3224865
         11.13517          6.182328          0.3025943
         11.19726          10.66414          0.3116412
         11.25936          12.85100          0.3162832
         11.32145          11.61449          0.2878941
         11.38355          8.250845          0.3449480
         11.44564          7.179914          0.3286438
         11.50774          6.888880          0.3940475
         11.56983          6.172525          0.3699570
         11.63192          5.163604          0.3986215
         11.69402          4.342026          0.4172485
         11.75611          4.664856          0.4116722
         11.81821          4.859879          0.4561004
         11.88030          4.645887          0.4398133
         11.94240          6.040590          0.4349663
         12.00449          5.631541          0.4117204
         12.06658          5.630701          0.3773276
         12.12868          5.042090          0.4254384
         12.19077          4.481385          0.4107497
         12.25287          5.107178          0.4604782
         12.31496          5.471077          0.4008746
         12.37705          5.111021          0.4032470
         12.43915          5.983651          0.3936575
         12.50124          5.443681          0.4025254
         12.56334          6.032492          0.3310486
         12.62543          7.171942          0.4105389
         12.68753          7.118271          0.3277241
         12.74962          7.575333          0.3446911
         12.81171          9.397161          0.3326580
         12.87381          8.421892          0.3559755
         12.93590          5.080204          0.3626214
         12.99800          3.946216          0.4272532
         13.06009          3.838077          0.3951263
         13.12218          3.095226          0.4044768
         13.18428          4.084314          0.4489200
         13.24637          3.676322          0.4613660
         13.30847          4.208158          0.5350673
         13.37056          3.305296          0.5058317
         13.43266          4.032896          0.5262625
         13.49475          4.062338          0.4931760
         13.55684          3.651034          0.4397002
         13.61894          3.116560          0.4165517
         13.68103          3.661501          0.4524771
         13.74313          3.551642          0.4537276
         13.80522          2.359197          0.4571898
         13.86732          3.339121          0.4673418
         13.92941          2.899204          0.4326705
         13.99150          3.341914          0.3949296
         14.05360          3.550162          0.4340193
         14.11569          3.889549          0.4794624
         14.17779          3.662618          0.4337775
         14.23988          4.138618          0.4673390
         14.30198          2.909626          0.4968155
         14.36407          3.028236          0.4753813
         14.42616          3.259065          0.4563812
         14.48826          3.030901          0.4514784
         14.55035          3.102889          0.5081220
         14.61245          3.051298          0.5265911
         14.67454          2.117797          0.4627996
         14.73664          1.688387          0.4842955
