\DATE= 'Tue Sep  4 19:20:35 2007'
\APERNAME= 'SL2'
\BUNIT= 'e/s/pix'
\CAL_SET= 'irs_2007_02_12-pb-pfc-trim-omeg-lhbiasfork.cal'
\SOFTWARE= 'CUBISM'
\SOFT_VER= 'v1.50pre3 (March-2007)'
\FILENAME= 'sl2.tbl'
\ COMMENT This file contains a spectral extraction created from
\ COMMENT an IRS spectral mapping dataset.
\ Extraction Rectangle:
\ # Box: 07:36:53.070,+65:37:05.88 ; 07:36:56.925,+65:36:51.73
\ #      07:37:00.126,+65:37:25.15 ; 07:36:56.270,+65:37:39.30
|   WAVELENGTH    |      FLUX       | FLUX_UNCERTAINTY |
|      real       |      real       |       real       |
|       um        |     e/s/pix     |     e/s/pix      |
         5.242817         0.3051228          0.3332580
         5.273802         0.1291773          0.3441775
         5.304788       -0.06973451          0.3157265
         5.335773         -1.126842          0.3222539
         5.366758        -0.3723305          0.2749246
         5.397744         -1.163552          0.2839475
         5.428729        -0.1495078          0.2873389
         5.459714        -0.3319345          0.2821317
         5.490700        -0.7994544          0.2544278
         5.521685         -1.327466          0.2574996
         5.552670         -1.085438          0.2674966
         5.583656         0.1893013          0.2899314
         5.614641         0.4450819          0.2809597
         5.645627         0.3454855          0.2966741
         5.676612       -0.03531029          0.3097538
         5.707598         0.1556879          0.3060555
         5.738583         0.7637941          0.3153290
         5.769568          1.042870          0.2834153
         5.800553        0.04313520          0.3096338
         5.831539         0.1488804          0.2927446
         5.862525        -0.1430671          0.2688999
         5.893510         0.2698064          0.2809395
         5.924495         0.2121215          0.2778405
         5.955481         0.8482692          0.2701434
         5.986466         0.8752185          0.2489683
         6.017451         0.8757745          0.2564043
         6.048437          1.372559          0.2486922
         6.079422          1.397962          0.2358105
         6.110407          1.693830          0.2151205
         6.141393          1.868291          0.2305420
         6.172378          1.936741          0.2317471
         6.203363          3.822126          0.2316197
         6.234349          3.316308          0.2290123
         6.265334          3.363204          0.2386750
         6.296319          2.794690          0.2469771
         6.327305          1.962522          0.2674194
         6.358290          2.372230          0.2662465
         6.389276          1.318659          0.2966339
         6.420261          1.472220          0.2983092
         6.451246          1.779108          0.2905280
         6.482232          1.329294          0.3031365
         6.513217          1.646567          0.2857015
         6.544202          1.937605          0.3091401
         6.575188          1.514238          0.3324691
         6.606173          1.500478          0.2992525
         6.637158          2.166703          0.2725413
         6.668144          1.067325          0.2620246
         6.699129          1.317260          0.2401563
         6.730114          1.473915          0.2519611
         6.761100          1.613677          0.2635514
         6.792085          1.618598          0.2722216
         6.823071          2.091320          0.2937369
         6.854056          2.079768          0.2684140
         6.885041          1.599868          0.2805288
         6.916027          1.421247          0.2835736
         6.947012          1.934673          0.3362100
         6.977998          2.668902          0.3470431
         7.008983          1.917378          0.3666225
         7.039968          1.337214          0.3804019
         7.070954          2.045570          0.3791375
         7.101939          1.517864          0.3901106
         7.132924          1.726898          0.3942670
         7.163910          2.540717          0.3925520
         7.194895          1.001105          0.4063485
         7.225881         0.8462129          0.3919979
         7.256866          1.169057          0.4103483
         7.287851          1.578181          0.4226014
         7.318837          2.244091          0.4198951
         7.349822          1.950706          0.4042273
         7.380807          2.127096          0.3872832
         7.411793         0.7983128          0.3758918
         7.442778          1.435478          0.3694208
         7.473763          1.640350          0.3704489
         7.504749          1.713463          0.4072313
         7.535734          3.730810          0.3902543
         7.566720          3.136667          0.4227348
         7.597705          2.536030          0.5420330
