\DATE= 'Sat Feb 16 23:41:36 2008'
\APERNAME= 'SL1'
\BUNIT= 'e/s/pix'
\CAL_SET= 'irs_2007_02_12-pb-pfc-trim-omeg-lhbiasfork.cal'
\SOFTWARE= 'CUBISM'
\SOFT_VER= 'v1.50pre3 (March-2007)'
\FILENAME= 'sl1.tbl'
\ COMMENT This file contains a spectral extraction created from
\ COMMENT an IRS spectral mapping dataset.
\ Extraction Rectangle:
\ # Box: 11:52:48.195,+44:07:04.31 ; 11:52:49.432,+44:06:54.32
\ #      11:52:49.947,+44:07:01.72 ; 11:52:48.710,+44:07:11.71
|   WAVELENGTH    |      FLUX       | FLUX_UNCERTAINTY |
|      real       |      real       |       real       |
|       um        |     e/s/pix     |     e/s/pix      |
         7.533706          5.569753          0.8320915
         7.595799          7.235022          0.8602840
         7.657894          6.261041          0.8137105
         7.719988          6.776011          0.6410963
         7.782082          7.026487          0.5140879
         7.844176          7.549663          0.6520032
         7.906271          7.173345          0.6334069
         7.968365          5.810498          0.6145105
         8.030458          5.618460          0.5580583
         8.092554          5.283593          0.4867855
         8.154648          5.340074          0.5338149
         8.216742          4.699814          0.5930132
         8.278836          4.246476          0.5513248
         8.340930          4.533415          0.5589496
         8.403025          4.336797          0.5276251
         8.465118          5.188435          0.6078817
         8.527213          5.210951          0.5334173
         8.589307          4.603174          0.5176275
         8.651402          4.981143          0.4349160
         8.713495          4.501824          0.4186373
         8.775590          3.958287          0.4201988
         8.837685          3.229868          0.3823359
         8.899778          3.207708          0.3664989
         8.961872          3.316933          0.3633297
         9.023967          3.161079          0.3669223
         9.086061          2.433564          0.3495802
         9.148155          2.560158          0.3435748
         9.210249          2.382652          0.3357961
         9.272344          2.656414          0.3707755
         9.334438          3.490923          0.4093254
         9.396532          2.580821          0.4012602
         9.458626          2.214674          0.3597455
         9.520720          3.227443          0.3890348
         9.582815          3.080949          0.3699607
         9.644909          3.232188          0.3903960
         9.707003          3.081778          0.4388308
         9.769097          2.724295          0.3615716
         9.831192          2.904785          0.4178176
         9.893286          3.287509          0.3890462
         9.955380          2.890097          0.4018282
         10.01747          3.184541          0.3373148
         10.07957          2.758943          0.3990011
         10.14166          2.443717          0.3950944
         10.20376          2.638918          0.3281522
         10.26585          3.017298          0.3486631
         10.32795          2.900943          0.3213205
         10.39004          2.943392          0.3415454
         10.45213          3.510792          0.3147830
         10.51423          3.234303          0.3443730
         10.57632          3.258444          0.3120870
         10.63842          3.201017          0.2992397
         10.70051          3.436235          0.3001528
         10.76260          3.850388          0.3155497
         10.82470          3.715581          0.3171668
         10.88679          4.058577          0.3255198
         10.94889          3.926814          0.3001873
         11.01098          4.578152          0.3108348
         11.07308          4.614867          0.3839394
         11.13517          5.693232          0.3830569
         11.19726          8.420109          0.3778761
         11.25936          9.500917          0.4107068
         11.32145          9.341694          0.3917167
         11.38355          8.119802          0.4456385
         11.44564          6.141856          0.4448705
         11.50774          5.327189          0.4657023
         11.56983          4.985051          0.5166484
         11.63192          4.793215          0.4415445
         11.69402          4.067487          0.4053001
         11.75611          3.948856          0.3230535
         11.81821          4.016045          0.3388920
         11.88030          3.992532          0.3913261
         11.94240          4.855564          0.3626438
         12.00449          4.304517          0.3411447
         12.06658          5.020143          0.3393498
         12.12868          4.049487          0.3392602
         12.19077          3.914595          0.3533632
         12.25287          4.349592          0.3858657
         12.31496          3.650211          0.3611992
         12.37705          3.611722          0.3831476
         12.43915          3.731346          0.3501241
         12.50124          4.400825          0.4158308
         12.56334          5.436108          0.4368539
         12.62543          5.209892          0.3795257
         12.68753          5.788820          0.3908617
         12.74962          5.935910          0.4301191
         12.81171          8.270279          0.4151794
         12.87381          7.282166          0.4760060
         12.93590          4.611906          0.4585899
         12.99800          4.383695          0.4959861
         13.06009          3.904598          0.4657228
         13.12218          3.189083          0.4993889
         13.18428          3.335831          0.4578243
         13.24637          2.558785          0.4221250
         13.30847          2.575974          0.4273397
         13.37056          3.241120          0.4077860
         13.43266          3.767745          0.4080656
         13.49475          2.000470          0.4019734
         13.55684          2.629467          0.3877769
         13.61894          3.354399          0.3531268
         13.68103          3.773790          0.3729414
         13.74313          3.610265          0.4399350
         13.80522          2.924331          0.4269412
         13.86732          3.129891          0.4253579
         13.92941          3.077604          0.4559153
         13.99150          2.620771          0.5308290
         14.05360          3.981297          0.5179358
         14.11569          3.501895          0.5343615
         14.17779          3.076207          0.5363968
         14.23988          2.758646          0.6347039
         14.30198          2.408306          0.6173368
         14.36407          2.837865          0.6623074
         14.42616          3.413535          0.5691727
         14.48826          3.018008          0.5403805
         14.55035          2.123451          0.5476237
         14.61245          3.286709          0.5045250
         14.67454          2.507555          0.4987184
         14.73664          2.151700          0.4435515
