\DATE= 'Mon Feb 18 01:56:46 2008'
\APERNAME= 'SL2'
\BUNIT= 'e/s/pix'
\CAL_SET= 'irs_2007_02_12-pb-pfc-trim-omeg-lhbiasfork.cal'
\SOFTWARE= 'CUBISM'
\SOFT_VER= 'v1.50pre3 (March-2007)'
\FILENAME= 'sl2.tbl'
\ COMMENT This file contains a spectral extraction created from
\ COMMENT an IRS spectral mapping dataset.
\ Extraction Rectangle:
\ # Box: 10:18:15.948,+41:25:23.90 ; 10:18:16.901,+41:25:16.65
\ #      10:18:17.639,+41:25:28.90 ; 10:18:16.685,+41:25:36.16
|   WAVELENGTH    |      FLUX       | FLUX_UNCERTAINTY |
|      real       |      real       |       real       |
|       um        |     e/s/pix     |     e/s/pix      |
         5.242817         -3.112715           1.309554
         5.273802          1.291979           1.412740
         5.304788          4.697074           1.265998
         5.335773          1.858825           1.469698
         5.366758          1.262468           1.025094
         5.397744          1.223182           1.229083
         5.428729          1.185017          0.8671661
         5.459714          2.408200          0.8263627
         5.490700          1.751370          0.9147040
         5.521685          3.173864          0.7079011
         5.552670         0.2852680          0.7070546
         5.583656          2.404001          0.7787477
         5.614641          1.446351          0.6661925
         5.645627          1.957096          0.8223165
         5.676612          3.106040          0.7048779
         5.707598          3.418652          0.7059336
         5.738583          1.449542          0.6739915
         5.769568          1.522687          0.7522016
         5.800553          2.959559          0.6998423
         5.831539          3.335251          0.8251902
         5.862525          2.973276          0.8761390
         5.893510          1.374589          0.9421473
         5.924495          4.028880          0.9704217
         5.955481          1.125008           1.027132
         5.986466          1.716868           1.174207
         6.017451          3.320233           1.063104
         6.048437          1.533985           1.012830
         6.079422          3.876786          0.9105325
         6.110407          2.425885          0.8665334
         6.141393          4.342938          0.8081136
         6.172378          7.153771          0.8165826
         6.203363          7.205878          0.8405610
         6.234349          8.237338          0.7099023
         6.265334          7.632409          0.7332693
         6.296319          4.356626          0.7610834
         6.327305          4.753976          0.8878966
         6.358290          5.074239          0.8108709
         6.389276          3.063643          0.7499037
         6.420261          3.783794          0.6935110
         6.451246          5.783059          0.7871822
         6.482232          3.431336          0.7099377
         6.513217          1.747293          0.8140363
         6.544202          1.622721          0.9501579
         6.575188         0.5160900           1.039353
         6.606173          1.753650          0.9493960
         6.637158          1.545730           1.071009
         6.668144          3.609565           1.156063
         6.699129         0.8728315          0.9311295
         6.730114          2.418169           1.113342
         6.761100          4.190310           2.259157
         6.792085          3.061177           1.000595
         6.823071          1.634952           1.058618
         6.854056          2.559411          0.9834086
         6.885041          2.842825           1.073909
         6.916027          3.574092           1.016683
         6.947012          3.124058          0.9318895
         6.977998          6.311217           1.003853
         7.008983          8.181260           1.083045
         7.039968          3.677898           1.081932
         7.070954          4.018902           1.110710
         7.101939          2.957911          0.9726632
         7.132924          5.000010           1.022129
         7.163910          3.305568           1.081465
         7.194895          3.323671          0.9484209
         7.225881          5.437932           1.025166
         7.256866          5.347622           1.033529
         7.287851          4.890271           1.293197
         7.318837          8.004768           1.385543
         7.349822          6.785520           1.600172
         7.380807          4.510272           1.545472
         7.411793          7.314915           1.651381
         7.442778          6.790803           1.501750
         7.473763          11.45672           1.421490
         7.504749          9.738039           1.602132
         7.535734          8.828393           1.532182
         7.566720          7.833963           1.590514
         7.597705          12.79215           1.611724
