\DATE= 'Thu Sep 27 19:21:04 2007'
\APERNAME= 'LL1'
\BUNIT= 'e/s/pix'
\CAL_SET= 'irs_2007_02_12-pb-pfc-trim-omeg-lhbiasfork.cal'
\SOFTWARE= 'CUBISM'
\SOFT_VER= 'v1.50pre3 (March-2007)'
\FILENAME= 'll1.tbl'
\ COMMENT This file contains a spectral extraction created from
\ COMMENT an IRS spectral mapping dataset.
\ Extraction Rectangle:
\ # Box: 11:05:45.580,-00:01:37.12 ; 11:05:45.020,-00:01:55.63
\ #      11:05:51.188,-00:02:37.61 ; 11:05:51.748,-00:02:19.11
|   WAVELENGTH    |      FLUX       | FLUX_UNCERTAINTY |
|      real       |      real       |       real       |
|       um        |     e/s/pix     |     e/s/pix      |
         20.52005          10.60585          0.1285074
         20.69658          11.11324         0.07001694
         20.87322          10.82983          0.2853269
         21.04995          10.32133         0.06842543
         21.22679          11.17783         0.05574299
         21.40373          11.19865         0.05077431
         21.58078          10.85733         0.04460544
         21.75792          11.29657         0.04918915
         21.93517          11.73880         0.05297313
         22.11252          11.44652         0.04376643
         22.28998          11.36864         0.04036900
         22.46754          11.89598         0.04315510
         22.64520          12.30479         0.04743565
         22.82297          12.27765         0.03955898
         23.00084          11.92467         0.03620098
         23.17881          12.35151         0.04010751
         23.35689          12.90192         0.04069913
         23.53507          13.28218         0.03930141
         23.71336          13.18007         0.03518059
         23.89176          13.15809         0.04177157
         24.07026          13.42058         0.03700973
         24.24886          13.49125         0.03854803
         24.42757          13.39495         0.04003906
         24.60638          13.36417         0.03994007
         24.78531          13.58217         0.04521837
         24.96433          13.99558         0.04252688
         25.14346          14.43663         0.04067250
         25.32270          14.55419         0.05142860
         25.50205          14.64203         0.04252179
         25.68150          15.27473         0.04409725
         25.86106          16.25393         0.04117814
         26.04073          16.57074         0.04252895
         26.22051          15.63773          0.1016729
         26.40039          15.21299          0.2392946
         26.58038          15.13562         0.03779513
         26.76048          15.30826         0.04362166
         26.94068          15.26115          0.1897186
         27.12100          15.47079         0.04044447
         27.30142          15.49347         0.03925829
         27.48195          15.60776         0.04404183
         27.66259          15.70776          0.2579777
         27.84334          15.93947          0.2621859
         28.02420          16.48006         0.04360561
         28.20517          18.15437          0.2382170
         28.38625          18.19719         0.04603188
         28.56744          16.74664         0.04336778
         28.74874          16.44521         0.04282779
         28.93015          16.82361         0.04320929
         29.11167          16.87217         0.04804289
         29.29330          17.50956         0.05646790
         29.47504          17.73404         0.05326314
         29.65689          17.86181         0.06570776
         29.83886          17.87177          0.2579058
         30.02094          18.10874         0.04512071
         30.20312          18.25051         0.04593232
         30.38542          18.83592         0.05229363
         30.56783          19.04502         0.05068317
         30.75036          19.58052         0.05329249
         30.93299          19.67608         0.05288510
         31.11574          19.92940         0.06935643
         31.29861          20.26627         0.05791391
         31.48158          20.17110         0.05586762
         31.66467          20.94436         0.06004857
         31.84788          21.52847         0.06190085
         32.03119          21.45175         0.06827047
         32.21462          22.03620         0.07164590
         32.39817          23.29100         0.08438060
         32.58183          23.21416         0.07859465
         32.76560          23.66312          0.2103987
         32.94949          24.13648          0.1045645
         33.13350          24.64104         0.08189349
         33.31762          26.87289         0.08775131
         33.50185          34.69842         0.09852428
         33.68620          35.30193          0.1104507
         33.87067          27.05469          0.1133951
         34.05526          25.99816          0.1230169
         34.23996          25.14791          0.1231832
         34.42477          25.10128          0.1199276
         34.60971          28.26959          0.1231719
         34.79476          44.38079          0.1402785
         34.97993          57.60477          0.1496567
         35.16521          35.84889          0.1442617
         35.35062          27.56583          0.1511302
         35.53614          26.92715          0.1599122
         35.72178          26.93831          0.1774456
         35.90754          26.55147          0.2061756
         36.09341          27.26213          0.1946645
         36.27941          28.06910          0.2084286
         36.46552          28.80618          0.2232795
         36.65176          29.38995          0.2444857
         36.83811          30.42201          0.2502808
         37.02459          29.02671          0.2564252
         37.21118          30.33115          0.3042062
         37.39790          29.48459          0.3120895
         37.58473          29.06192          0.3594920
         37.77169          32.07529          0.4364790
         37.95876          31.53837          0.4954002
         38.14596          36.53987          0.6594952
         38.33328          29.63001          0.5180281
