\DATE= 'Fri Sep 28 20:00:07 2007'
\APERNAME= 'LL1'
\BUNIT= 'e/s/pix'
\CAL_SET= 'irs_2007_02_12-pb-pfc-trim-omeg-lhbiasfork.cal'
\SOFTWARE= 'CUBISM'
\SOFT_VER= 'v1.50pre3 (March-2007)'
\FILENAME= 'll1.tbl'
\ COMMENT This file contains a spectral extraction created from
\ COMMENT an IRS spectral mapping dataset.
\ Extraction Rectangle:
\ # Box: 12:22:48.926,+15:49:54.35 ; 12:22:49.289,+15:50:03.06
\ #      12:22:48.686,+15:50:08.29 ; 12:22:48.323,+15:49:59.59
|   WAVELENGTH    |      FLUX       | FLUX_UNCERTAINTY |
|      real       |      real       |       real       |
|       um        |     e/s/pix     |     e/s/pix      |
         20.52005          3.960833          0.3288617
         20.69658          3.609184          0.3399443
         20.87322          3.587731          0.2974577
         21.04995          3.744713          0.2880037
         21.22679          3.601849          0.3482679
         21.40373          3.781287          0.3332722
         21.58078          3.863585          0.3165843
         21.75792          4.047114          0.3255689
         21.93517          3.723775          0.4035892
         22.11252          4.254287          0.2467276
         22.28998          4.454214          0.2213151
         22.46754          4.467447          0.2251734
         22.64520          4.712280          0.2545279
         22.82297          4.482201          0.2033618
         23.00084          4.266461          0.1583144
         23.17881          4.401577          0.1642375
         23.35689          4.769239          0.3314816
         23.53507          4.760937          0.1618209
         23.71336          4.336820          0.1294297
         23.89176          4.312796          0.1491714
         24.07026          4.882310          0.1481466
         24.24886          4.670136          0.1498409
         24.42757          4.718579          0.1385418
         24.60638          4.920776          0.1470162
         24.78531          4.717488          0.1751180
         24.96433          5.145497          0.1743862
         25.14346          5.354608          0.1922389
         25.32270          5.017446          0.1841555
         25.50205          4.842227          0.1477711
         25.68150          5.760394          0.1736380
         25.86106          5.897203          0.2128504
         26.04073          5.872510          0.2152556
         26.22051          5.701922          0.1892471
         26.40039          5.156393          0.1985016
         26.58038          5.425090          0.1776853
         26.76048          5.186128          0.2539242
         26.94068          5.411749          0.2503439
         27.12100          5.257772          0.2939446
         27.30142          5.274780          0.1764531
         27.48195          5.500352          0.1816175
         27.66259          5.767546          0.1951081
         27.84334          5.531898          0.2864511
         28.02420          6.280113          0.2610466
         28.20517          6.060930          0.2576424
         28.38625          7.204309          0.2430623
         28.56744          6.487375          0.2364661
         28.74874          6.302158          0.1847351
         28.93015          5.821782          0.2155201
         29.11167          5.961587          0.2453631
         29.29330          6.792041          0.2307895
         29.47504          6.790508          0.1914660
         29.65689          5.956474          0.2480034
         29.83886          7.006302          0.2289246
         30.02094          6.447344          0.2228051
         30.20312          6.205272          0.2163913
         30.38542          6.845380          0.2679691
         30.56783          7.263046          0.2601630
         30.75036          7.229365          0.2414793
         30.93299          6.477687          0.2580509
         31.11574          6.732553          0.3106617
         31.29861          6.998726          0.2634128
         31.48158          6.578857          0.2079731
         31.66467          7.441246          0.2832891
         31.84788          7.893159          0.2939328
         32.03119          7.078753          0.4305067
         32.21462          7.016900          0.3140714
         32.39817          7.879342          0.3788660
         32.58183          7.259973          0.4099226
         32.76560          6.930397          0.2667348
         32.94949          7.784539          0.3818538
         33.13350          9.444414          0.3545456
         33.31762          8.548662          0.4700115
         33.50185          12.01576          0.7246548
         33.68620          16.74295          0.4712943
         33.87067          10.33216          0.6353344
         34.05526          9.234393          0.7207848
         34.23996          9.593844          0.6107380
         34.42477          7.756861          0.6769040
         34.60971          8.082297          0.6994923
         34.79476          11.97415          0.7672111
         34.97993          18.12200          0.7747607
         35.16521          14.74441          0.6506631
         35.35062          9.758986          0.9822431
         35.53614          9.934020           1.044181
         35.72178          7.775374           1.263604
         35.90754          10.33623           1.246041
         36.09341          8.011829           1.644266
         36.27941          11.67268           1.346276
         36.46552          10.72509           2.599788
         36.65176          8.848644           1.435875
         36.83811          9.301835           1.440600
         37.02459          6.960258           1.238451
         37.21118          6.878947           2.200970
         37.39790          7.315981           2.056574
         37.58473          9.492537           1.925957
         37.77169          12.54753           2.932364
         37.95876          20.34510           5.850672
         38.14596          15.01627           3.659386
         38.33328          5.952318           2.249264
